Brown University Keck/NASA Relab Spectrum MM-MEM-074-WS/BKR1MM074WS
Wavelength(micron)	Reflectance
0.32	0.04899
0.33	0.05331
0.34	0.05500
0.35	0.05630
0.36	0.05758
0.37	0.05901
0.38	0.06136
0.39	0.06356
0.4	0.06551
0.41	0.06776
0.42	0.06918
0.43	0.07095
0.44	0.07291
0.45	0.07452
0.46	0.07587
0.47	0.07708
0.48	0.07823
0.49	0.07992
0.5	0.08206
0.51	0.08419
0.52	0.08639
0.53	0.08895
0.54	0.09185
0.55	0.09542
0.56	0.09965
0.57	0.10410
0.58	0.10846
0.59	0.11212
0.6	0.11487
0.61	0.11713
0.62	0.11873
0.63	0.11995
0.64	0.12112
0.65	0.12233
0.66	0.12336
0.67	0.12425
0.68	0.12514
0.69	0.12608
0.7	0.12697
0.71	0.12778
0.72	0.12849
0.73	0.12952
0.74	0.12993
0.75	0.13026
0.76	0.13037
0.77	0.13012
0.78	0.12996
0.79	0.12974
0.8	0.12938
0.81	0.12891
0.82	0.12853
0.83	0.12770
0.84	0.12721
0.85	0.12691
0.86	0.12623
0.87	0.12580
0.88	0.12522
0.89	0.12474
0.9	0.12463
0.91	0.12311
0.92	0.12271
0.93	0.12247
0.94	0.12238
0.95	0.12235
0.96	0.12166
0.97	0.12144
0.98	0.12104
0.99	0.12115
1	0.12109
1.01	0.12101
1.02	0.12095
1.03	0.12042
1.04	0.12065
1.05	0.12046
1.06	0.12000
1.07	0.11965
1.08	0.11948
1.09	0.11946
1.1	0.11907
1.11	0.11872
1.12	0.11877
1.13	0.11836
1.14	0.11838
1.15	0.11808
1.16	0.11758
1.17	0.11733
1.18	0.11720
1.19	0.11698
1.2	0.11676
1.21	0.11691
1.22	0.11641
1.23	0.11618
1.24	0.11553
1.25	0.11524
1.26	0.11484
1.27	0.11474
1.28	0.11436
1.29	0.11388
1.3	0.11346
1.31	0.11346
1.32	0.11309
1.33	0.11301
1.34	0.11301
1.35	0.11285
1.36	0.11292
1.37	0.11235
1.38	0.11238
1.39	0.11120
1.4	0.11082
1.41	0.11059
1.42	0.10981
1.43	0.10959
1.44	0.10958
1.45	0.10958
1.46	0.10956
1.47	0.10980
1.48	0.10967
1.49	0.10931
1.5	0.10944
1.51	0.10948
1.52	0.10969
1.53	0.10974
1.54	0.10935
1.55	0.10951
1.56	0.10939
1.57	0.10944
1.58	0.10949
1.59	0.10977
1.6	0.10959
1.61	0.10941
1.62	0.10936
1.63	0.10908
1.64	0.10907
1.65	0.10930
1.66	0.10907
1.67	0.10897
1.68	0.10909
1.69	0.10882
1.7	0.10889
1.71	0.10907
1.72	0.10891
1.73	0.10880
1.74	0.10882
1.75	0.10862
1.76	0.10874
1.77	0.10875
1.78	0.10854
1.79	0.10844
1.8	0.10862
1.8011	0.10868
1.8017	0.10870
1.8023	0.10878
1.8029	0.10892
1.8036	0.10884
1.8042	0.10876
1.8048	0.10887
1.8055	0.10883
1.8061	0.10869
1.8067	0.10871
1.8073	0.10876
1.808	0.10858
1.8086	0.10845
1.8092	0.10867
1.8099	0.10896
1.8105	0.10902
1.8111	0.10894
1.8118	0.10898
1.8124	0.10895
1.813	0.10869
1.8137	0.10849
1.8143	0.10859
1.8149	0.10883
1.8156	0.10890
1.8162	0.10884
1.8168	0.10881
1.8175	0.10889
1.8181	0.10887
1.8188	0.10886
1.8194	0.10879
1.82	0.10859
1.8207	0.10861
1.8213	0.10869
1.8219	0.10868
1.8226	0.10857
1.8232	0.10850
1.8239	0.10853
1.8245	0.10866
1.8252	0.10888
1.8258	0.10889
1.8264	0.10874
1.8271	0.10862
1.8277	0.10855
1.8284	0.10859
1.829	0.10866
1.8297	0.10882
1.8303	0.10876
1.831	0.10854
1.8316	0.10857
1.8323	0.10879
1.8329	0.10881
1.8336	0.10870
1.8342	0.10871
1.8348	0.10864
1.8355	0.10867
1.8362	0.10875
1.8368	0.10873
1.8374	0.10870
1.8381	0.10876
1.8388	0.10886
1.8394	0.10898
1.8401	0.10900
1.8407	0.10886
1.8414	0.10872
1.842	0.10871
1.8427	0.10875
1.8433	0.10869
1.844	0.10857
1.8446	0.10861
1.8453	0.10871
1.8459	0.10863
1.8466	0.10856
1.8473	0.10868
1.8479	0.10871
1.8486	0.10863
1.8493	0.10874
1.8499	0.10879
1.8506	0.10871
1.8512	0.10863
1.8519	0.10858
1.8526	0.10855
1.8532	0.10871
1.8539	0.10885
1.8545	0.10864
1.8552	0.10849
1.8559	0.10862
1.8565	0.10874
1.8572	0.10877
1.8579	0.10877
1.8585	0.10869
1.8592	0.10859
1.8599	0.10859
1.8605	0.10869
1.8612	0.10871
1.8619	0.10874
1.8625	0.10886
1.8632	0.10876
1.8639	0.10859
1.8645	0.10855
1.8652	0.10860
1.8659	0.10861
1.8666	0.10859
1.8672	0.10854
1.8679	0.10868
1.8686	0.10879
1.8693	0.10869
1.8699	0.10853
1.8706	0.10862
1.8713	0.10869
1.8719	0.10859
1.8726	0.10857
1.8733	0.10860
1.874	0.10846
1.8747	0.10831
1.8753	0.10834
1.876	0.10841
1.8767	0.10837
1.8774	0.10830
1.8781	0.10833
1.8787	0.10835
1.8794	0.10834
1.8801	0.10836
1.8808	0.10830
1.8815	0.10822
1.8821	0.10820
1.8828	0.10821
1.8835	0.10825
1.8842	0.10813
1.8849	0.10798
1.8856	0.10778
1.8863	0.10771
1.8869	0.10776
1.8876	0.10773
1.8883	0.10764
1.889	0.10747
1.8897	0.10740
1.8904	0.10756
1.8911	0.10753
1.8918	0.10740
1.8924	0.10724
1.8931	0.10705
1.8938	0.10701
1.8945	0.10697
1.8952	0.10688
1.8959	0.10680
1.8966	0.10675
1.8973	0.10667
1.898	0.10674
1.8987	0.10673
1.8994	0.10660
1.9001	0.10654
1.9008	0.10652
1.9015	0.10650
1.9022	0.10637
1.9029	0.10642
1.9036	0.10644
1.9043	0.10637
1.905	0.10649
1.9057	0.10653
1.9064	0.10650
1.9071	0.10643
1.9078	0.10625
1.9085	0.10616
1.9092	0.10623
1.9099	0.10625
1.9106	0.10628
1.9113	0.10630
1.912	0.10630
1.9127	0.10632
1.9134	0.10639
1.9141	0.10634
1.9148	0.10631
1.9155	0.10636
1.9162	0.10646
1.9169	0.10651
1.9176	0.10650
1.9183	0.10648
1.9191	0.10658
1.9198	0.10661
1.9205	0.10654
1.9212	0.10661
1.9219	0.10659
1.9226	0.10658
1.9233	0.10658
1.9241	0.10650
1.9248	0.10649
1.9255	0.10659
1.9262	0.10662
1.9269	0.10662
1.9276	0.10663
1.9283	0.10658
1.9291	0.10669
1.9298	0.10679
1.9305	0.10674
1.9312	0.10661
1.9319	0.10664
1.9327	0.10666
1.9334	0.10663
1.9341	0.10669
1.9348	0.10672
1.9355	0.10665
1.9363	0.10654
1.937	0.10655
1.9377	0.10653
1.9384	0.10654
1.9392	0.10655
1.9399	0.10655
1.9406	0.10664
1.9413	0.10665
1.9421	0.10659
1.9428	0.10657
1.9435	0.10660
1.9443	0.10664
1.945	0.10657
1.9457	0.10656
1.9464	0.10666
1.9472	0.10666
1.9479	0.10663
1.9486	0.10665
1.9494	0.10673
1.9501	0.10664
1.9508	0.10667
1.9516	0.10679
1.9523	0.10685
1.953	0.10693
1.9538	0.10697
1.9545	0.10688
1.9553	0.10687
1.956	0.10696
1.9567	0.10707
1.9575	0.10706
1.9582	0.10711
1.9589	0.10712
1.9597	0.10707
1.9604	0.10711
1.9612	0.10713
1.9619	0.10718
1.9627	0.10724
1.9634	0.10725
1.9641	0.10725
1.9649	0.10732
1.9656	0.10729
1.9664	0.10722
1.9671	0.10722
1.9679	0.10725
1.9686	0.10720
1.9694	0.10724
1.9701	0.10726
1.9708	0.10725
1.9716	0.10725
1.9723	0.10737
1.9731	0.10736
1.9738	0.10730
1.9746	0.10725
1.9754	0.10720
1.9761	0.10722
1.9769	0.10737
1.9776	0.10741
1.9784	0.10736
1.9791	0.10738
1.9799	0.10738
1.9806	0.10737
1.9814	0.10751
1.9822	0.10760
1.9829	0.10755
1.9837	0.10761
1.9844	0.10762
1.9852	0.10759
1.9859	0.10757
1.9867	0.10758
1.9875	0.10764
1.9882	0.10769
1.989	0.10767
1.9898	0.10766
1.9905	0.10765
1.9913	0.10762
1.9921	0.10758
1.9928	0.10769
1.9936	0.10772
1.9943	0.10771
1.9951	0.10770
1.9959	0.10767
1.9967	0.10771
1.9974	0.10778
1.9982	0.10777
1.999	0.10787
1.9997	0.10785
2.0005	0.10777
2.0013	0.10776
2.0021	0.10781
2.0028	0.10783
2.0036	0.10783
2.0044	0.10783
2.0052	0.10778
2.0059	0.10776
2.0067	0.10776
2.0075	0.10777
2.0083	0.10791
2.009	0.10796
2.0098	0.10795
2.0106	0.10798
2.0114	0.10802
2.0122	0.10800
2.0129	0.10799
2.0137	0.10796
2.0145	0.10801
2.0153	0.10800
2.0161	0.10791
2.0168	0.10792
2.0176	0.10800
2.0184	0.10797
2.0192	0.10801
2.02	0.10801
2.0208	0.10802
2.0216	0.10808
2.0224	0.10811
2.0232	0.10814
2.0239	0.10816
2.0247	0.10818
2.0255	0.10819
2.0263	0.10816
2.0271	0.10807
2.0279	0.10802
2.0287	0.10804
2.0295	0.10804
2.0303	0.10814
2.0311	0.10817
2.0319	0.10812
2.0327	0.10810
2.0335	0.10795
2.0343	0.10793
2.0351	0.10810
2.0359	0.10816
2.0367	0.10813
2.0375	0.10811
2.0383	0.10813
2.0391	0.10814
2.0399	0.10818
2.0407	0.10815
2.0415	0.10813
2.0423	0.10817
2.0431	0.10813
2.0439	0.10815
2.0447	0.10818
2.0455	0.10813
2.0463	0.10815
2.0471	0.10819
2.0479	0.10821
2.0487	0.10816
2.0495	0.10812
2.0504	0.10817
2.0512	0.10816
2.052	0.10802
2.0528	0.10799
2.0536	0.10805
2.0544	0.10807
2.0552	0.10803
2.056	0.10805
2.0569	0.10808
2.0577	0.10812
2.0585	0.10814
2.0593	0.10818
2.0601	0.10813
2.0609	0.10810
2.0618	0.10813
2.0626	0.10813
2.0634	0.10806
2.0642	0.10806
2.0651	0.10811
2.0659	0.10809
2.0667	0.10808
2.0675	0.10808
2.0683	0.10814
2.0692	0.10815
2.07	0.10811
2.0708	0.10805
2.0716	0.10811
2.0725	0.10820
2.0733	0.10811
2.0741	0.10805
2.075	0.10811
2.0758	0.10804
2.0766	0.10803
2.0775	0.10816
2.0783	0.10817
2.0791	0.10810
2.08	0.10812
2.0808	0.10806
2.0816	0.10800
2.0825	0.10809
2.0833	0.10811
2.0841	0.10807
2.085	0.10816
2.0858	0.10816
2.0867	0.10807
2.0875	0.10806
2.0883	0.10809
2.0892	0.10804
2.09	0.10806
2.0909	0.10809
2.0917	0.10815
2.0926	0.10810
2.0934	0.10802
2.0942	0.10802
2.0951	0.10800
2.0959	0.10795
2.0968	0.10797
2.0976	0.10798
2.0985	0.10801
2.0993	0.10810
2.1002	0.10811
2.101	0.10804
2.1019	0.10802
2.1027	0.10804
2.1036	0.10804
2.1044	0.10804
2.1053	0.10798
2.1061	0.10800
2.107	0.10802
2.1079	0.10794
2.1087	0.10791
2.1096	0.10795
2.1104	0.10793
2.1113	0.10789
2.1122	0.10794
2.113	0.10796
2.1139	0.10796
2.1147	0.10795
2.1156	0.10795
2.1165	0.10802
2.1173	0.10794
2.1182	0.10787
2.1191	0.10786
2.1199	0.10786
2.1208	0.10789
2.1217	0.10781
2.1225	0.10781
2.1234	0.10789
2.1243	0.10786
2.1251	0.10784
2.126	0.10782
2.1269	0.10783
2.1278	0.10786
2.1286	0.10784
2.1295	0.10777
2.1304	0.10775
2.1313	0.10769
2.1321	0.10761
2.133	0.10757
2.1339	0.10760
2.1348	0.10765
2.1356	0.10765
2.1365	0.10764
2.1374	0.10768
2.1383	0.10766
2.1392	0.10762
2.1401	0.10765
2.1409	0.10765
2.1418	0.10762
2.1427	0.10759
2.1436	0.10760
2.1445	0.10756
2.1454	0.10743
2.1463	0.10749
2.1471	0.10748
2.148	0.10735
2.1489	0.10733
2.1498	0.10740
2.1507	0.10733
2.1516	0.10721
2.1525	0.10723
2.1534	0.10721
2.1543	0.10720
2.1552	0.10715
2.1561	0.10713
2.157	0.10713
2.1579	0.10705
2.1588	0.10707
2.1597	0.10704
2.1606	0.10689
2.1615	0.10683
2.1624	0.10683
2.1633	0.10682
2.1642	0.10678
2.1651	0.10669
2.166	0.10658
2.1669	0.10650
2.1678	0.10647
2.1687	0.10639
2.1696	0.10636
2.1705	0.10629
2.1714	0.10619
2.1723	0.10613
2.1733	0.10610
2.1742	0.10602
2.1751	0.10595
2.176	0.10582
2.1769	0.10567
2.1778	0.10559
2.1787	0.10550
2.1796	0.10546
2.1806	0.10542
2.1815	0.10526
2.1824	0.10511
2.1833	0.10499
2.1842	0.10489
2.1851	0.10489
2.1861	0.10478
2.187	0.10452
2.1879	0.10438
2.1888	0.10429
2.1898	0.10423
2.1907	0.10412
2.1916	0.10400
2.1926	0.10398
2.1935	0.10393
2.1944	0.10385
2.1953	0.10373
2.1963	0.10364
2.1972	0.10364
2.1981	0.10358
2.1991	0.10348
2.2	0.10335
2.2009	0.10335
2.2019	0.10333
2.2028	0.10329
2.2037	0.10319
2.2047	0.10308
2.2056	0.10312
2.2065	0.10322
2.2075	0.10324
2.2084	0.10322
2.2094	0.10324
2.2103	0.10324
2.2113	0.10324
2.2122	0.10327
2.2131	0.10326
2.2141	0.10329
2.215	0.10332
2.216	0.10329
2.2169	0.10330
2.2179	0.10341
2.2188	0.10345
2.2198	0.10343
2.2207	0.10348
2.2217	0.10347
2.2226	0.10346
2.2236	0.10355
2.2245	0.10360
2.2255	0.10360
2.2264	0.10362
2.2274	0.10363
2.2284	0.10362
2.2293	0.10362
2.2303	0.10360
2.2312	0.10357
2.2322	0.10362
2.2331	0.10378
2.2341	0.10382
2.2351	0.10389
2.236	0.10396
2.237	0.10397
2.238	0.10397
2.2389	0.10401
2.2399	0.10400
2.2409	0.10393
2.2418	0.10399
2.2428	0.10407
2.2438	0.10405
2.2448	0.10406
2.2457	0.10408
2.2467	0.10414
2.2477	0.10420
2.2486	0.10425
2.2496	0.10426
2.2506	0.10423
2.2516	0.10418
2.2526	0.10427
2.2535	0.10435
2.2545	0.10432
2.2555	0.10438
2.2565	0.10450
2.2575	0.10453
2.2584	0.10451
2.2594	0.10452
2.2604	0.10448
2.2614	0.10448
2.2624	0.10460
2.2634	0.10464
2.2644	0.10467
2.2654	0.10467
2.2663	0.10471
2.2673	0.10478
2.2683	0.10479
2.2693	0.10475
2.2703	0.10481
2.2713	0.10484
2.2723	0.10490
2.2733	0.10496
2.2743	0.10494
2.2753	0.10501
2.2763	0.10506
2.2773	0.10501
2.2783	0.10504
2.2793	0.10509
2.2803	0.10517
2.2813	0.10521
2.2823	0.10521
2.2833	0.10527
2.2843	0.10534
2.2853	0.10539
2.2863	0.10541
2.2873	0.10536
2.2884	0.10536
2.2894	0.10543
2.2904	0.10551
2.2914	0.10556
2.2924	0.10559
2.2934	0.10567
2.2944	0.10570
2.2954	0.10567
2.2965	0.10569
2.2975	0.10572
2.2985	0.10576
2.2995	0.10577
2.3005	0.10574
2.3016	0.10578
2.3026	0.10582
2.3036	0.10582
2.3046	0.10581
2.3056	0.10586
2.3067	0.10590
2.3077	0.10594
2.3087	0.10605
2.3098	0.10611
2.3108	0.10613
2.3118	0.10616
2.3129	0.10614
2.3139	0.10614
2.3149	0.10622
2.3159	0.10623
2.317	0.10623
2.318	0.10622
2.3191	0.10625
2.3201	0.10625
2.3211	0.10626
2.3222	0.10632
2.3232	0.10635
2.3243	0.10638
2.3253	0.10640
2.3263	0.10641
2.3274	0.10642
2.3284	0.10636
2.3295	0.10633
2.3305	0.10641
2.3316	0.10647
2.3326	0.10644
2.3337	0.10651
2.3347	0.10657
2.3358	0.10650
2.3368	0.10644
2.3379	0.10646
2.3389	0.10652
2.34	0.10656
2.341	0.10652
2.3421	0.10647
2.3432	0.10650
2.3442	0.10654
2.3453	0.10652
2.3463	0.10655
2.3474	0.10657
2.3485	0.10656
2.3495	0.10654
2.3506	0.10653
2.3517	0.10648
2.3527	0.10654
2.3538	0.10658
2.3549	0.10662
2.3559	0.10660
2.357	0.10661
2.3581	0.10662
2.3591	0.10662
2.3602	0.10654
2.3613	0.10654
2.3624	0.10660
2.3634	0.10665
2.3645	0.10661
2.3656	0.10653
2.3667	0.10655
2.3678	0.10661
2.3689	0.10661
2.3699	0.10655
2.371	0.10656
2.3721	0.10653
2.3732	0.10649
2.3743	0.10653
2.3754	0.10647
2.3764	0.10650
2.3775	0.10656
2.3786	0.10657
2.3797	0.10648
2.3808	0.10642
2.3819	0.10639
2.383	0.10640
2.3841	0.10632
2.3852	0.10631
2.3863	0.10637
2.3874	0.10641
2.3885	0.10637
2.3896	0.10633
2.3907	0.10632
2.3918	0.10627
2.3929	0.10624
2.394	0.10624
2.3951	0.10621
2.3962	0.10616
2.3973	0.10611
2.3984	0.10610
2.3996	0.10613
2.4007	0.10610
2.4018	0.10607
2.4029	0.10605
2.404	0.10603
2.4051	0.10600
2.4062	0.10600
2.4074	0.10603
2.4085	0.10594
2.4096	0.10577
2.4107	0.10574
2.4118	0.10575
2.4129	0.10572
2.4141	0.10571
2.4152	0.10569
2.4163	0.10563
2.4174	0.10556
2.4186	0.10550
2.4197	0.10544
2.4208	0.10540
2.422	0.10535
2.4231	0.10533
2.4242	0.10530
2.4254	0.10525
2.4265	0.10515
2.4276	0.10506
2.4288	0.10508
2.4299	0.10504
2.4311	0.10495
2.4322	0.10494
2.4333	0.10488
2.4345	0.10483
2.4356	0.10478
2.4368	0.10469
2.4379	0.10467
2.4391	0.10466
2.4402	0.10461
2.4414	0.10451
2.4425	0.10443
2.4437	0.10441
2.4448	0.10437
2.446	0.10429
2.4471	0.10415
2.4483	0.10411
2.4494	0.10414
2.4506	0.10411
2.4517	0.10407
2.4529	0.10405
2.4541	0.10395
2.4552	0.10381
2.4564	0.10374
2.4576	0.10371
2.4587	0.10366
2.4599	0.10363
2.4611	0.10358
2.4622	0.10357
2.4634	0.10353
2.4646	0.10346
2.4657	0.10343
2.4669	0.10337
2.4681	0.10328
2.4693	0.10327
2.4704	0.10320
2.4716	0.10313
2.4728	0.10318
2.474	0.10317
2.4751	0.10305
2.4763	0.10300
2.4775	0.10297
2.4787	0.10294
2.4799	0.10290
2.4811	0.10287
2.4823	0.10286
2.4834	0.10290
2.4846	0.10283
2.4858	0.10273
2.487	0.10272
2.4882	0.10275
2.4894	0.10268
2.4906	0.10261
2.4918	0.10259
2.493	0.10255
2.4942	0.10249
2.4954	0.10244
2.4966	0.10243
2.4978	0.10240
2.499	0.10236
2.5002	0.10236
2.5014	0.10234
2.5026	0.10232
2.5038	0.10230
2.505	0.10226
2.5063	0.10223
2.5075	0.10215
2.5087	0.10212
2.5099	0.10209
2.5111	0.10208
2.5123	0.10213
2.5135	0.10207
2.5148	0.10196
2.516	0.10189
2.5172	0.10187
2.5184	0.10187
2.5196	0.10182
2.5209	0.10174
2.5221	0.10172
2.5233	0.10168
2.5246	0.10167
2.5258	0.10164
2.527	0.10159
2.5283	0.10152
2.5295	0.10149
2.5307	0.10142
2.5319	0.10139
2.5332	0.10139
2.5344	0.10136
2.5357	0.10131
2.5369	0.10128
2.5381	0.10117
2.5394	0.10113
2.5406	0.10111
2.5419	0.10106
2.5431	0.10103
2.5444	0.10098
2.5456	0.10088
2.5469	0.10085
2.5481	0.10081
2.5494	0.10076
2.5506	0.10073
2.5519	0.10072
2.5531	0.10066
2.5544	0.10050
2.5557	0.10037
2.5569	0.10029
2.5582	0.10029
2.5594	0.10033
2.5607	0.10036
2.562	0.10030
2.5632	0.10018
2.5645	0.10010
2.5658	0.10002
2.5671	0.09997
2.5683	0.09996
2.5696	0.09992
2.5709	0.09979
2.5721	0.09972
2.5734	0.09980
2.5747	0.09968
2.576	0.09962
2.5773	0.09962
2.5785	0.09942
2.5798	0.09931
2.5811	0.09939
2.5824	0.09938
2.5837	0.09946
2.585	0.09933
2.5863	0.09914
2.5875	0.09916
2.5888	0.09909
2.5901	0.09899
2.5914	0.09893
2.5927	0.09899
2.594	0.09926
2.5953	0.09941
2.5966	0.09904
2.5979	0.09878
2.5992	0.09868
2.6005	0.09864
2.6018	0.09859
2.6031	0.09865
2.6044	0.09876
2.6057	0.09877
2.6071	0.09865
2.6084	0.09854
2.6097	0.09842
2.611	0.09834
2.6123	0.09829
2.6136	0.09831
2.6149	0.09823
2.6163	0.09831
2.6176	0.09826
2.6189	0.09813
2.6202	0.09823
2.6216	0.09809
2.6229	0.09784
2.6242	0.09774
2.6255	0.09775
2.6269	0.09785
2.6282	0.09768
2.6295	0.09768
2.6309	0.09768
2.6322	0.09737
2.6335	0.09723
2.6349	0.09710
2.6362	0.09688
2.6376	0.09674
2.6389	0.09653
2.6402	0.09641
2.6416	0.09629
2.6429	0.09610
2.6443	0.09585
2.6456	0.09573
2.647	0.09550
2.6483	0.09523
2.6497	0.09495
2.651	0.09469
2.6524	0.09438
2.6538	0.09406
2.6551	0.09365
2.6565	0.09321
2.6578	0.09275
2.6592	0.09238
2.6606	0.09178
2.6619	0.09113
2.6633	0.09046
2.6647	0.08985
2.666	0.08884
2.6674	0.08728
2.6688	0.08502
2.6701	0.08230
2.6715	0.07842
2.6729	0.07499
2.6743	0.07236
2.6757	0.07044
2.677	0.06885
2.6784	0.06758
2.6798	0.06650
2.6812	0.06556
2.6826	0.06476
2.684	0.06398
2.6854	0.06315
2.6868	0.06234
2.6881	0.06145
2.6895	0.06054
2.6909	0.05955
2.6923	0.05861
2.6937	0.05757
2.6951	0.05650
2.6965	0.05541
2.6979	0.05418
2.6993	0.05294
2.7008	0.05178
2.7021	0.05060
2.7036	0.04956
2.705	0.04881
2.7064	0.04839
2.7078	0.04826
2.7092	0.04831
2.7106	0.04832
2.7121	0.04820
2.7135	0.04793
2.7149	0.04765
2.7163	0.04728
2.7177	0.04692
2.7192	0.04657
2.7206	0.04624
2.722	0.04566
2.7234	0.04517
2.7249	0.04478
2.7263	0.04437
2.7277	0.04402
2.7292	0.04376
2.7306	0.04345
2.7321	0.04314
2.7335	0.04288
2.7349	0.04265
2.7364	0.04234
2.7378	0.04215
2.7393	0.04214
2.7407	0.04212
2.7422	0.04200
2.7436	0.04186
2.7451	0.04174
2.7465	0.04168
2.748	0.04159
2.7494	0.04145
2.7509	0.04132
2.7524	0.04121
2.7538	0.04106
2.7553	0.04095
2.7567	0.04063
2.7582	0.04029
2.7597	0.04002
2.7611	0.03991
2.7626	0.04007
2.7641	0.04048
2.7656	0.04082
2.767	0.04108
2.7685	0.04118
2.77	0.04118
2.7715	0.04119
2.773	0.04120
2.7744	0.04117
2.7759	0.04116
2.7774	0.04114
2.7789	0.04108
2.7804	0.04112
2.7819	0.04117
2.7834	0.04113
2.7849	0.04109
2.7864	0.04111
2.7879	0.04112
2.7894	0.04103
2.7909	0.04095
2.7924	0.04092
2.7939	0.04088
2.7954	0.04086
2.7969	0.04080
2.7984	0.04071
2.7999	0.04063
2.8014	0.04056
2.8029	0.04053
2.8044	0.04044
2.806	0.04037
2.8075	0.04026
2.809	0.04016
2.8105	0.04013
2.8121	0.04000
2.8136	0.03986
2.8151	0.03979
2.8166	0.03976
2.8182	0.03972
2.8197	0.03965
2.8212	0.03956
2.8228	0.03946
2.8243	0.03934
2.8259	0.03921
2.8274	0.03915
2.8289	0.03910
2.8305	0.03907
2.832	0.03901
2.8336	0.03891
2.8351	0.03884
2.8367	0.03876
2.8382	0.03864
2.8398	0.03851
2.8413	0.03843
2.8429	0.03838
2.8444	0.03832
2.846	0.03826
2.8476	0.03817
2.8491	0.03812
2.8507	0.03811
2.8523	0.03807
2.8538	0.03801
2.8554	0.03796
2.857	0.03790
2.8586	0.03783
2.8601	0.03780
2.8617	0.03774
2.8633	0.03768
2.8649	0.03765
2.8665	0.03762
2.8681	0.03758
2.8696	0.03756
2.8712	0.03752
2.8728	0.03747
2.8744	0.03746
2.876	0.03747
2.8776	0.03742
2.8792	0.03738
2.8808	0.03737
2.8824	0.03735
2.884	0.03730
2.8856	0.03724
2.8872	0.03722
2.8888	0.03719
2.8904	0.03719
2.892	0.03722
2.8936	0.03720
2.8953	0.03716
2.8969	0.03715
2.8985	0.03719
2.9001	0.03718
2.9018	0.03713
2.9034	0.03710
2.905	0.03712
2.9066	0.03716
2.9083	0.03712
2.9099	0.03706
2.9115	0.03706
2.9132	0.03702
2.9148	0.03698
2.9164	0.03700
2.9181	0.03704
2.9197	0.03703
2.9214	0.03699
2.923	0.03699
2.9247	0.03699
2.9263	0.03695
2.928	0.03697
2.9296	0.03700
2.9313	0.03699
2.9329	0.03697
2.9346	0.03695
2.9363	0.03696
2.9379	0.03699
2.9396	0.03697
2.9413	0.03695
2.9429	0.03698
2.9446	0.03700
2.9463	0.03701
2.9479	0.03702
2.9496	0.03706
2.9513	0.03711
2.953	0.03712
2.9547	0.03713
2.9564	0.03715
2.958	0.03722
2.9597	0.03726
2.9614	0.03728
2.9631	0.03725
2.9648	0.03721
2.9665	0.03721
2.9682	0.03726
2.9699	0.03731
2.9716	0.03732
2.9733	0.03734
2.975	0.03741
2.9767	0.03748
2.9784	0.03749
2.9801	0.03751
2.9818	0.03751
2.9836	0.03751
2.9853	0.03754
2.987	0.03758
2.9887	0.03759
2.9904	0.03764
2.9922	0.03769
2.9939	0.03768
2.9956	0.03774
2.9974	0.03782
2.9991	0.03785
3.0008	0.03786
3.0026	0.03788
3.0043	0.03790
3.0061	0.03791
3.0078	0.03793
3.0095	0.03796
3.0113	0.03801
3.013	0.03807
3.0148	0.03808
3.0165	0.03809
3.0183	0.03815
3.0201	0.03821
3.0218	0.03822
3.0236	0.03825
3.0253	0.03828
3.0271	0.03832
3.0289	0.03838
3.0306	0.03841
3.0324	0.03844
3.0342	0.03847
3.036	0.03848
3.0377	0.03852
3.0395	0.03857
3.0413	0.03862
3.0431	0.03863
3.0449	0.03864
3.0467	0.03870
3.0485	0.03881
3.0503	0.03889
3.0521	0.03889
3.0538	0.03891
3.0556	0.03899
3.0574	0.03903
3.0593	0.03902
3.0611	0.03906
3.0629	0.03913
3.0647	0.03919
3.0665	0.03922
3.0683	0.03924
3.0701	0.03928
3.0719	0.03936
3.0738	0.03942
3.0756	0.03942
3.0774	0.03943
3.0792	0.03950
3.0811	0.03953
3.0829	0.03958
3.0847	0.03966
3.0866	0.03972
3.0884	0.03976
3.0902	0.03980
3.0921	0.03982
3.0939	0.03985
3.0958	0.03992
3.0976	0.04001
3.0995	0.04007
3.1013	0.04011
3.1032	0.04017
3.1051	0.04020
3.1069	0.04026
3.1088	0.04035
3.1106	0.04041
3.1125	0.04045
3.1144	0.04053
3.1162	0.04059
3.1181	0.04067
3.12	0.04073
3.1219	0.04079
3.1238	0.04087
3.1256	0.04090
3.1275	0.04095
3.1294	0.04104
3.1313	0.04114
3.1332	0.04122
3.1351	0.04128
3.137	0.04134
3.1389	0.04144
3.1408	0.04154
3.1427	0.04158
3.1446	0.04164
3.1465	0.04175
3.1484	0.04184
3.1503	0.04191
3.1522	0.04197
3.1541	0.04203
3.1561	0.04213
3.158	0.04220
3.1599	0.04229
3.1619	0.04241
3.1638	0.04248
3.1657	0.04255
3.1676	0.04265
3.1696	0.04273
3.1715	0.04278
3.1735	0.04289
3.1754	0.04299
3.1773	0.04307
3.1793	0.04317
3.1812	0.04328
3.1832	0.04338
3.1851	0.04345
3.1871	0.04354
3.1891	0.04362
3.191	0.04369
3.193	0.04380
3.195	0.04391
3.1969	0.04400
3.1989	0.04407
3.2009	0.04416
3.2029	0.04422
3.2048	0.04429
3.2068	0.04439
3.2088	0.04450
3.2108	0.04459
3.2128	0.04471
3.2148	0.04481
3.2168	0.04489
3.2188	0.04499
3.2208	0.04506
3.2228	0.04514
3.2248	0.04524
3.2268	0.04533
3.2288	0.04543
3.2308	0.04554
3.2328	0.04563
3.2348	0.04571
3.2368	0.04579
3.2389	0.04591
3.2409	0.04603
3.2429	0.04614
3.2449	0.04623
3.247	0.04633
3.249	0.04644
3.2511	0.04656
3.2531	0.04667
3.2551	0.04681
3.2572	0.04692
3.2592	0.04699
3.2613	0.04709
3.2633	0.04724
3.2654	0.04738
3.2674	0.04748
3.2695	0.04757
3.2716	0.04771
3.2736	0.04784
3.2757	0.04797
3.2778	0.04809
3.2798	0.04823
3.2819	0.04835
3.284	0.04846
3.2861	0.04857
3.2882	0.04869
3.2902	0.04883
3.2923	0.04898
3.2944	0.04912
3.2965	0.04927
3.2986	0.04942
3.3007	0.04954
3.3028	0.04970
3.3049	0.04984
3.307	0.04994
3.3091	0.05006
3.3113	0.05024
3.3134	0.05039
3.3155	0.05053
3.3176	0.05068
3.3197	0.05084
3.3219	0.05101
3.324	0.05117
3.3261	0.05130
3.3283	0.05144
3.3304	0.05156
3.3325	0.05171
3.3347	0.05184
3.3368	0.05195
3.339	0.05210
3.3411	0.05226
3.3433	0.05239
3.3454	0.05251
3.3476	0.05267
3.3498	0.05283
3.3519	0.05294
3.3541	0.05305
3.3563	0.05320
3.3584	0.05334
3.3606	0.05348
3.3628	0.05360
3.365	0.05371
3.3672	0.05383
3.3694	0.05396
3.3715	0.05409
3.3737	0.05420
3.3759	0.05433
3.3781	0.05450
3.3803	0.05471
3.3825	0.05487
3.3847	0.05504
3.3869	0.05522
3.3892	0.05540
3.3914	0.05554
3.3936	0.05567
3.3958	0.05576
3.3981	0.05590
3.4003	0.05604
3.4025	0.05614
3.4047	0.05622
3.407	0.05633
3.4092	0.05647
3.4115	0.05658
3.4137	0.05672
3.416	0.05689
3.4182	0.05712
3.4205	0.05740
3.4227	0.05770
3.425	0.05802
3.4273	0.05834
3.4295	0.05868
3.4318	0.05902
3.4341	0.05930
3.4363	0.05957
3.4386	0.05977
3.4409	0.05994
3.4432	0.06012
3.4455	0.06035
3.4478	0.06059
3.4501	0.06077
3.4523	0.06093
3.4546	0.06114
3.4569	0.06133
3.4593	0.06149
3.4616	0.06164
3.4639	0.06180
3.4662	0.06197
3.4685	0.06213
3.4708	0.06227
3.4732	0.06241
3.4755	0.06255
3.4778	0.06263
3.4801	0.06274
3.4825	0.06294
3.4848	0.06314
3.4872	0.06327
3.4895	0.06339
3.4919	0.06350
3.4942	0.06355
3.4966	0.06361
3.4989	0.06368
3.5013	0.06378
3.5037	0.06397
3.506	0.06422
3.5084	0.06453
3.5108	0.06491
3.5132	0.06534
3.5155	0.06571
3.5179	0.06598
3.5203	0.06621
3.5227	0.06642
3.5251	0.06662
3.5275	0.06680
3.5299	0.06698
3.5323	0.06716
3.5347	0.06733
3.5371	0.06750
3.5395	0.06767
3.5419	0.06784
3.5444	0.06802
3.5468	0.06819
3.5492	0.06835
3.5517	0.06852
3.5541	0.06871
3.5565	0.06886
3.559	0.06902
3.5614	0.06921
3.5639	0.06941
3.5663	0.06959
3.5688	0.06975
3.5712	0.06993
3.5737	0.07009
3.5761	0.07026
3.5786	0.07045
3.5811	0.07061
3.5836	0.07073
3.586	0.07088
3.5885	0.07107
3.591	0.07125
3.5935	0.07140
3.596	0.07157
3.5985	0.07175
3.601	0.07188
3.6035	0.07202
3.606	0.07220
3.6085	0.07237
3.611	0.07253
3.6135	0.07266
3.6161	0.07282
3.6186	0.07298
3.6211	0.07310
3.6236	0.07325
3.6262	0.07343
3.6287	0.07357
3.6313	0.07372
3.6338	0.07387
3.6363	0.07400
3.6389	0.07414
3.6414	0.07427
3.644	0.07442
3.6466	0.07458
3.6491	0.07474
3.6517	0.07493
3.6543	0.07506
3.6569	0.07517
3.6594	0.07529
3.662	0.07543
3.6646	0.07558
3.6672	0.07574
3.6698	0.07589
3.6724	0.07602
3.675	0.07613
3.6776	0.07624
3.6802	0.07636
3.6828	0.07651
3.6854	0.07664
3.6881	0.07675
3.6907	0.07686
3.6933	0.07700
3.6959	0.07713
3.6986	0.07725
3.7012	0.07737
3.7039	0.07747
3.7065	0.07757
3.7092	0.07769
3.7118	0.07781
3.7145	0.07795
3.7171	0.07806
3.7198	0.07812
3.7225	0.07818
3.7252	0.07831
3.7278	0.07846
3.7305	0.07857
3.7332	0.07864
3.7359	0.07873
3.7386	0.07884
3.7413	0.07893
3.744	0.07904
3.7467	0.07914
3.7494	0.07922
3.7521	0.07934
3.7548	0.07942
3.7576	0.07949
3.7603	0.07958
3.763	0.07967
3.7657	0.07975
3.7685	0.07983
3.7712	0.07992
3.774	0.07999
3.7767	0.08006
3.7795	0.08016
3.7822	0.08025
3.785	0.08033
3.7877	0.08039
3.7905	0.08046
3.7933	0.08050
3.7961	0.08058
3.7988	0.08063
3.8016	0.08070
3.8044	0.08076
3.8072	0.08079
3.81	0.08085
3.8128	0.08094
3.8156	0.08099
3.8184	0.08104
3.8212	0.08110
3.8241	0.08117
3.8269	0.08122
3.8297	0.08125
3.8325	0.08128
3.8354	0.08131
3.8382	0.08135
3.8411	0.08143
3.8439	0.08147
3.8468	0.08151
3.8496	0.08156
3.8525	0.08157
3.8553	0.08158
3.8582	0.08163
3.8611	0.08168
3.8639	0.08172
3.8668	0.08172
3.8697	0.08174
3.8726	0.08178
3.8755	0.08180
3.8784	0.08182
3.8813	0.08186
3.8842	0.08188
3.8871	0.08189
3.89	0.08190
3.893	0.08191
3.8959	0.08191
3.8988	0.08194
3.9017	0.08196
3.9047	0.08196
3.9076	0.08199
3.9106	0.08201
3.9135	0.08200
3.9165	0.08200
3.9194	0.08198
3.9224	0.08200
3.9254	0.08198
3.9284	0.08196
3.9313	0.08196
3.9343	0.08196
3.9373	0.08195
3.9403	0.08193
3.9433	0.08191
3.9463	0.08191
3.9493	0.08191
3.9523	0.08192
3.9553	0.08187
3.9583	0.08183
3.9614	0.08181
3.9644	0.08181
3.9674	0.08180
3.9705	0.08179
3.9735	0.08177
3.9766	0.08179
3.9796	0.08178
3.9826	0.08175
3.9857	0.08172
3.9888	0.08170
3.9919	0.08172
3.9949	0.08171
3.998	0.08168
4.0011	0.08166
4.0042	0.08164
4.0073	0.08160
4.0104	0.08157
4.0135	0.08156
4.0166	0.08153
4.0197	0.08152
4.0228	0.08148
4.0259	0.08143
4.0291	0.08140
4.0322	0.08137
4.0353	0.08135
4.0385	0.08134
4.0416	0.08132
4.0448	0.08130
4.0479	0.08126
4.0511	0.08123
4.0543	0.08120
4.0574	0.08119
4.0606	0.08116
4.0638	0.08111
4.067	0.08109
4.0702	0.08101
4.0734	0.08093
4.0766	0.08090
4.0798	0.08090
4.083	0.08085
4.0862	0.08081
4.0894	0.08077
4.0927	0.08070
4.0959	0.08066
4.0991	0.08063
4.1024	0.08060
4.1056	0.08056
4.1089	0.08050
4.1121	0.08044
4.1154	0.08039
4.1187	0.08033
4.122	0.08030
4.1252	0.08026
4.1285	0.08019
4.1318	0.08014
4.1351	0.08010
4.1384	0.08008
4.1417	0.08003
4.145	0.07996
4.1483	0.07990
4.1516	0.07985
4.155	0.07979
4.1583	0.07976
4.1616	0.07970
4.165	0.07962
4.1683	0.07955
4.1717	0.07950
4.175	0.07945
4.1784	0.07937
4.1818	0.07931
4.1852	0.07925
4.1885	0.07918
4.1919	0.07915
4.1953	0.07909
4.1987	0.07900
4.2021	0.07896
4.2055	0.07890
4.2089	0.07886
4.2124	0.07882
4.2158	0.07876
4.2192	0.07875
4.2226	0.07874
4.2261	0.07869
4.2295	0.07864
4.233	0.07858
4.2365	0.07850
4.2399	0.07838
4.2434	0.07826
4.2469	0.07815
4.2503	0.07802
4.2538	0.07788
4.2573	0.07780
4.2608	0.07775
4.2643	0.07771
4.2678	0.07765
4.2713	0.07758
4.2749	0.07751
4.2784	0.07745
4.2819	0.07736
4.2855	0.07728
4.289	0.07720
4.2926	0.07709
4.2961	0.07698
4.2997	0.07686
4.3033	0.07673
4.3068	0.07663
4.3104	0.07652
4.314	0.07642
4.3176	0.07629
4.3212	0.07616
4.3248	0.07604
4.3284	0.07596
4.332	0.07585
4.3356	0.07574
4.3393	0.07562
4.3429	0.07551
4.3465	0.07540
4.3502	0.07528
4.3538	0.07518
4.3575	0.07509
4.3611	0.07498
4.3648	0.07489
4.3685	0.07478
4.3722	0.07468
4.3759	0.07455
4.3796	0.07444
4.3833	0.07436
4.387	0.07429
4.3907	0.07417
4.3944	0.07407
4.3981	0.07397
4.4019	0.07385
4.4056	0.07374
4.4094	0.07362
4.4131	0.07351
4.4169	0.07341
4.4206	0.07330
4.4244	0.07318
4.4282	0.07306
4.432	0.07296
4.4358	0.07285
4.4396	0.07275
4.4434	0.07266
4.4472	0.07258
4.451	0.07249
4.4548	0.07240
4.4586	0.07231
4.4625	0.07223
4.4663	0.07218
4.4702	0.07210
4.474	0.07200
4.4779	0.07194
4.4818	0.07190
4.4856	0.07187
4.4895	0.07182
4.4934	0.07174
4.4973	0.07169
4.5012	0.07165
4.5051	0.07158
4.509	0.07150
4.513	0.07146
4.5169	0.07139
4.5209	0.07128
4.5248	0.07124
4.5287	0.07120
4.5327	0.07115
4.5367	0.07112
4.5406	0.07107
4.5446	0.07101
4.5486	0.07096
4.5526	0.07093
4.5566	0.07092
4.5606	0.07092
4.5646	0.07092
4.5686	0.07091
4.5727	0.07089
4.5767	0.07088
4.5808	0.07087
4.5848	0.07082
4.5889	0.07081
4.5929	0.07083
4.597	0.07079
4.6011	0.07073
4.6052	0.07070
4.6093	0.07063
4.6134	0.07055
4.6175	0.07048
4.6216	0.07041
4.6257	0.07032
4.6298	0.07024
4.634	0.07017
4.6381	0.07012
4.6423	0.07003
4.6464	0.06997
4.6506	0.06986
4.6548	0.06976
4.659	0.06964
4.6631	0.06950
4.6673	0.06938
4.6715	0.06929
4.6758	0.06918
4.68	0.06910
4.6842	0.06900
4.6884	0.06887
4.6927	0.06876
4.6969	0.06865
4.7012	0.06854
4.7055	0.06846
4.7097	0.06836
4.714	0.06827
4.7183	0.06815
4.7226	0.06800
4.7269	0.06788
4.7312	0.06779
4.7355	0.06771
4.7399	0.06765
4.7442	0.06761
4.7485	0.06760
4.7529	0.06760
4.7573	0.06762
4.7616	0.06764
4.766	0.06764
4.7704	0.06757
4.7748	0.06752
4.7792	0.06745
4.7836	0.06737
4.788	0.06727
4.7924	0.06717
4.7969	0.06706
4.8013	0.06694
4.8058	0.06678
4.8102	0.06665
4.8147	0.06652
4.8191	0.06637
4.8236	0.06621
4.8281	0.06605
4.8326	0.06587
4.8371	0.06569
4.8416	0.06549
4.8462	0.06528
4.8507	0.06503
4.8553	0.06480
4.8598	0.06457
4.8644	0.06433
4.8689	0.06404
4.8735	0.06378
4.8781	0.06350
4.8827	0.06318
4.8873	0.06284
4.8919	0.06255
4.8965	0.06225
4.9011	0.06194
4.9058	0.06164
4.9104	0.06135
4.9151	0.06104
4.9197	0.06075
4.9244	0.06043
4.9291	0.06009
4.9338	0.05977
4.9385	0.05947
4.9432	0.05918
4.9479	0.05889
4.9526	0.05865
4.9574	0.05839
4.9621	0.05809
4.9669	0.05784
4.9716	0.05759
4.9764	0.05731
4.9812	0.05706
4.986	0.05688
4.9908	0.05669
4.9956	0.05652
5.0004	0.05635
5.0052	0.05617
5.01	0.05595
5.0149	0.05576
5.0198	0.05559
5.0246	0.05544
5.0295	0.05530
5.0344	0.05517
5.0393	0.05504
5.0442	0.05492
5.0491	0.05482
5.054	0.05472
5.0589	0.05459
5.0639	0.05447
5.0688	0.05439
5.0738	0.05432
5.0788	0.05423
5.0837	0.05419
5.0887	0.05414
5.0937	0.05409
5.0987	0.05407
5.1037	0.05403
5.1088	0.05399
5.1138	0.05398
5.1189	0.05394
5.1239	0.05392
5.129	0.05391
5.1341	0.05390
5.1391	0.05388
5.1443	0.05388
5.1494	0.05390
5.1545	0.05388
5.1596	0.05382
5.1647	0.05375
5.1699	0.05368
5.175	0.05362
5.1802	0.05356
5.1854	0.05347
5.1906	0.05336
5.1958	0.05325
5.201	0.05311
5.2062	0.05294
5.2115	0.05274
5.2167	0.05254
5.222	0.05231
5.2272	0.05207
5.2325	0.05180
5.2378	0.05151
5.2431	0.05119
5.2484	0.05089
5.2537	0.05056
5.259	0.05021
5.2644	0.04990
5.2697	0.04958
5.2751	0.04923
5.2805	0.04890
5.2858	0.04861
5.2912	0.04832
5.2966	0.04800
5.302	0.04772
5.3075	0.04745
5.3129	0.04720
5.3184	0.04698
5.3238	0.04677
5.3293	0.04661
5.3348	0.04649
5.3403	0.04636
5.3458	0.04632
5.3513	0.04631
5.3568	0.04625
5.3624	0.04623
5.3679	0.04625
5.3735	0.04627
5.379	0.04635
5.3846	0.04648
5.3902	0.04660
5.3958	0.04673
5.4015	0.04687
5.4071	0.04700
5.4127	0.04715
5.4184	0.04736
5.4241	0.04756
5.4297	0.04764
5.4354	0.04779
5.4411	0.04796
5.4468	0.04811
5.4526	0.04822
5.4583	0.04835
5.4641	0.04849
5.4698	0.04859
5.4756	0.04867
5.4814	0.04876
5.4872	0.04879
5.493	0.04885
5.4988	0.04889
5.5047	0.04896
5.5105	0.04902
5.5164	0.04907
5.5223	0.04908
5.5281	0.04910
5.534	0.04910
5.54	0.04907
5.5459	0.04904
5.5518	0.04906
5.5578	0.04903
5.5637	0.04900
5.5697	0.04895
5.5757	0.04894
5.5817	0.04892
5.5877	0.04884
5.5937	0.04878
5.5998	0.04876
5.6058	0.04872
5.6119	0.04867
5.618	0.04858
5.6241	0.04851
5.6302	0.04846
5.6363	0.04845
5.6424	0.04842
5.6486	0.04831
5.6547	0.04820
5.6609	0.04810
5.6671	0.04799
5.6733	0.04793
5.6795	0.04783
5.6857	0.04770
5.692	0.04759
5.6982	0.04746
5.7045	0.04739
5.7108	0.04734
5.7171	0.04719
5.7234	0.04704
5.7297	0.04691
5.736	0.04683
5.7424	0.04672
5.7488	0.04664
5.7551	0.04648
5.7615	0.04643
5.768	0.04636
5.7744	0.04608
5.7808	0.04584
5.7873	0.04564
5.7937	0.04541
5.8002	0.04519
5.8067	0.04495
5.8132	0.04475
5.8198	0.04462
5.8263	0.04436
5.8328	0.04399
5.8394	0.04365
5.846	0.04329
5.8526	0.04296
5.8592	0.04263
5.8658	0.04229
5.8725	0.04196
5.8791	0.04175
5.8858	0.04126
5.8925	0.04076
5.8992	0.04025
5.9059	0.03963
5.9126	0.03908
5.9194	0.03856
5.9262	0.03807
5.9329	0.03773
5.9397	0.03740
5.9465	0.03707
5.9534	0.03687
5.9602	0.03669
5.9671	0.03652
5.974	0.03624
5.9808	0.03593
5.9878	0.03570
5.9947	0.03537
6.0016	0.03500
6.0086	0.03468
6.0155	0.03438
6.0225	0.03405
6.0295	0.03377
6.0365	0.03355
6.0436	0.03342
6.0506	0.03322
6.0577	0.03281
6.0648	0.03250
6.0719	0.03222
6.079	0.03187
6.0861	0.03155
6.0933	0.03129
6.1005	0.03107
6.1076	0.03093
6.1148	0.03083
6.1221	0.03064
6.1293	0.03051
6.1365	0.03047
6.1438	0.03052
6.1511	0.03057
6.1584	0.03067
6.1657	0.03078
6.1731	0.03098
6.1804	0.03140
6.1878	0.03195
6.1952	0.03245
6.2026	0.03302
6.21	0.03359
6.2175	0.03413
6.225	0.03461
6.2324	0.03506
6.2399	0.03547
6.2475	0.03583
6.255	0.03620
6.2625	0.03652
6.2701	0.03680
6.2777	0.03704
6.2853	0.03727
6.2929	0.03747
6.3006	0.03765
6.3083	0.03783
6.3159	0.03802
6.3236	0.03816
6.3314	0.03826
6.3391	0.03842
6.3469	0.03856
6.3546	0.03855
6.3624	0.03857
6.3703	0.03868
6.3781	0.03870
6.3859	0.03869
6.3938	0.03870
6.4017	0.03874
6.4096	0.03887
6.4176	0.03889
6.4255	0.03871
6.4335	0.03866
6.4415	0.03862
6.4495	0.03860
6.4575	0.03859
6.4656	0.03858
6.4736	0.03862
6.4817	0.03867
6.4898	0.03872
6.498	0.03866
6.5061	0.03850
6.5143	0.03843
6.5225	0.03838
6.5307	0.03829
6.5389	0.03821
6.5472	0.03818
6.5555	0.03815
6.5638	0.03811
6.5721	0.03808
6.5804	0.03794
6.5888	0.03787
6.5972	0.03783
6.6056	0.03776
6.614	0.03770
6.6225	0.03764
6.6309	0.03764
6.6394	0.03759
6.6479	0.03739
6.6565	0.03721
6.665	0.03712
6.6736	0.03705
6.6822	0.03693
6.6908	0.03672
6.6995	0.03660
6.7081	0.03651
6.7168	0.03635
6.7255	0.03614
6.7343	0.03592
6.743	0.03575
6.7518	0.03555
6.7606	0.03530
6.7694	0.03513
6.7783	0.03499
6.7871	0.03483
6.796	0.03460
6.805	0.03436
6.8139	0.03418
6.8229	0.03407
6.8319	0.03391
6.8409	0.03374
6.8499	0.03362
6.859	0.03356
6.868	0.03340
6.8772	0.03318
6.8863	0.03304
6.8955	0.03290
6.9046	0.03276
6.9138	0.03260
6.9231	0.03243
6.9323	0.03229
6.9416	0.03222
6.9509	0.03218
6.9602	0.03211
6.9696	0.03193
6.979	0.03175
6.9884	0.03164
6.9978	0.03155
7.0073	0.03148
7.0168	0.03139
7.0263	0.03130
7.0358	0.03125
7.0454	0.03122
7.0549	0.03111
7.0645	0.03102
7.0742	0.03097
7.0839	0.03095
7.0935	0.03090
7.1033	0.03084
7.113	0.03078
7.1228	0.03071
7.1326	0.03063
7.1424	0.03056
7.1522	0.03049
7.1621	0.03041
7.172	0.03029
7.182	0.03016
7.1919	0.03005
7.2019	0.02995
7.2119	0.02981
7.222	0.02962
7.232	0.02942
7.2421	0.02925
7.2523	0.02910
7.2624	0.02897
7.2726	0.02884
7.2828	0.02869
7.2931	0.02853
7.3034	0.02833
7.3136	0.02816
7.324	0.02802
7.3343	0.02786
7.3447	0.02769
7.3551	0.02750
7.3656	0.02726
7.3761	0.02704
7.3866	0.02689
7.3971	0.02673
7.4077	0.02656
7.4183	0.02632
7.4289	0.02609
7.4396	0.02594
7.4503	0.02582
7.461	0.02565
7.4717	0.02549
7.4825	0.02530
7.4933	0.02512
7.5041	0.02497
7.515	0.02483
7.5259	0.02467
7.5369	0.02454
7.5479	0.02443
7.5589	0.02437
7.5699	0.02431
7.581	0.02424
7.592	0.02420
7.6032	0.02424
7.6144	0.02433
7.6255	0.02446
7.6368	0.02468
7.648	0.02499
7.6593	0.02537
7.6707	0.02585
7.682	0.02651
7.6934	0.02739
7.7049	0.02845
7.7163	0.02972
7.7278	0.03130
7.7394	0.03322
7.7509	0.03551
7.7625	0.03820
7.7742	0.04135
7.7858	0.04493
7.7975	0.04902
7.8093	0.05366
7.8211	0.05882
7.8329	0.06447
7.8447	0.07062
7.8566	0.07723
7.8685	0.08427
7.8805	0.09156
7.8925	0.09903
7.9045	0.10642
7.9166	0.11358
7.9287	0.12033
7.9408	0.12654
7.953	0.13176
7.9652	0.13588
7.9775	0.13870
7.9898	0.14032
8.0021	0.14085
8.0145	0.14058
8.0269	0.13964
8.0393	0.13840
8.0518	0.13693
8.0643	0.13549
8.0769	0.13407
8.0895	0.13276
8.1021	0.13153
8.1148	0.13050
8.1275	0.12958
8.1403	0.12884
8.1531	0.12823
8.1659	0.12784
8.1788	0.12749
8.1917	0.12729
8.2047	0.12722
8.2177	0.12728
8.2307	0.12739
8.2438	0.12768
8.257	0.12802
8.2701	0.12851
8.2833	0.12899
8.2966	0.12955
8.3099	0.13016
8.3232	0.13082
8.3366	0.13147
8.35	0.13223
8.3635	0.13295
8.377	0.13370
8.3905	0.13439
8.4042	0.13511
8.4178	0.13584
8.4315	0.13661
8.4452	0.13734
8.459	0.13812
8.4728	0.13877
8.4867	0.13943
8.5006	0.14008
8.5145	0.14074
8.5285	0.14130
8.5426	0.14193
8.5567	0.14258
8.5708	0.14327
8.585	0.14384
8.5993	0.14447
8.6135	0.14519
8.6279	0.14619
8.6423	0.14744
8.6567	0.14893
8.6712	0.15055
8.6857	0.15234
8.7003	0.15422
8.7149	0.15631
8.7296	0.15856
8.7443	0.16117
8.759	0.16402
8.7739	0.16716
8.7887	0.17057
8.8037	0.17439
8.8186	0.17853
8.8337	0.18316
8.8487	0.18808
8.8638	0.19351
8.879	0.19926
8.8943	0.20530
8.9095	0.21157
8.9249	0.21803
8.9403	0.22430
8.9557	0.23046
8.9712	0.23625
8.9868	0.24179
9.0023	0.24683
9.018	0.25114
9.0337	0.25423
9.0495	0.25609
9.0653	0.25655
9.0812	0.25588
9.0971	0.25400
9.1131	0.25137
9.1291	0.24806
9.1452	0.24437
9.1614	0.24044
9.1776	0.23646
9.1939	0.23235
9.2102	0.22836
9.2266	0.22435
9.243	0.22048
9.2595	0.21665
9.2761	0.21296
9.2927	0.20928
9.3094	0.20574
9.3262	0.20216
9.343	0.19870
9.3598	0.19512
9.3768	0.19170
9.3937	0.18833
9.4108	0.18497
9.4279	0.18161
9.4451	0.17831
9.4623	0.17502
9.4796	0.17190
9.497	0.16861
9.5144	0.16537
9.5319	0.16214
9.5494	0.15890
9.567	0.15563
9.5847	0.15237
9.6025	0.14918
9.6203	0.14616
9.6382	0.14317
9.6561	0.14045
9.6742	0.13787
9.6922	0.13532
9.7104	0.13271
9.7286	0.13005
9.7469	0.12732
9.7652	0.12458
9.7837	0.12183
9.8022	0.11929
9.8207	0.11690
9.8394	0.11476
9.8581	0.11284
9.8768	0.11116
9.8957	0.10980
9.9146	0.10873
9.9336	0.10767
9.9527	0.10648
9.9718	0.10518
9.991	0.10388
10.0103	0.10253
10.0297	0.10111
10.0491	0.09966
10.0686	0.09817
10.0882	0.09665
10.1079	0.09518
10.1276	0.09368
10.1475	0.09229
10.1673	0.09100
10.1873	0.08970
10.2074	0.08841
10.2275	0.08721
10.2477	0.08605
10.268	0.08501
10.2884	0.08401
10.3088	0.08307
10.3294	0.08224
10.35	0.08145
10.3707	0.08071
10.3915	0.08006
10.4123	0.07945
10.4333	0.07886
10.4543	0.07823
10.4754	0.07767
10.4967	0.07714
10.5179	0.07662
10.5393	0.07616
10.5608	0.07574
10.5823	0.07535
10.604	0.07510
10.6257	0.07489
10.6475	0.07477
10.6694	0.07460
10.6914	0.07448
10.7135	0.07438
10.7357	0.07423
10.758	0.07402
10.7803	0.07382
10.8028	0.07369
10.8254	0.07361
10.848	0.07351
10.8708	0.07346
10.8936	0.07351
10.9165	0.07360
10.9395	0.07381
10.9627	0.07413
10.9859	0.07421
11.0092	0.07408
11.0327	0.07379
11.0562	0.07342
11.0798	0.07309
11.1035	0.07263
11.1274	0.07214
11.1513	0.07173
11.1753	0.07127
11.1995	0.07081
11.2237	0.07038
11.248	0.06992
11.2725	0.06948
11.2971	0.06906
11.3217	0.06863
11.3465	0.06823
11.3714	0.06778
11.3964	0.06739
11.4215	0.06703
11.4467	0.06657
11.472	0.06604
11.4975	0.06548
11.523	0.06495
11.5487	0.06444
11.5744	0.06389
11.6003	0.06335
11.6263	0.06277
11.6525	0.06217
11.6787	0.06150
11.7051	0.06084
11.7316	0.06014
11.7582	0.05944
11.7849	0.05870
11.8117	0.05793
11.8387	0.05717
11.8658	0.05649
11.893	0.05588
11.9203	0.05532
11.9478	0.05466
11.9754	0.05422
12.0031	0.05393
12.031	0.05369
12.059	0.05341
12.0871	0.05319
12.1153	0.05314
12.1437	0.05315
12.1722	0.05321
12.2008	0.05326
12.2296	0.05339
12.2585	0.05360
12.2876	0.05387
12.3168	0.05416
12.3461	0.05453
12.3755	0.05490
12.4052	0.05535
12.4349	0.05601
12.4648	0.05676
12.4948	0.05754
12.525	0.05839
12.5553	0.05908
12.5858	0.05947
12.6164	0.05979
12.6472	0.06008
12.6781	0.06027
12.7092	0.06040
12.7404	0.06059
12.7718	0.06074
12.8033	0.06087
12.835	0.06092
12.8669	0.06079
12.8989	0.06045
12.9311	0.06001
12.9634	0.05943
12.9959	0.05879
13.0285	0.05816
13.0613	0.05760
13.0943	0.05711
13.1275	0.05663
13.1608	0.05616
13.1943	0.05584
13.228	0.05550
13.2618	0.05515
13.2958	0.05481
13.33	0.05457
13.3643	0.05429
13.3988	0.05400
13.4336	0.05372
13.4685	0.05346
13.5035	0.05321
13.5388	0.05282
13.5742	0.05231
13.6099	0.05197
13.6457	0.05161
13.6817	0.05142
13.7179	0.05118
13.7543	0.05077
13.7908	0.05043
13.8276	0.05008
13.8646	0.04971
13.9018	0.04934
13.9392	0.04899
13.9767	0.04862
14.0145	0.04812
14.0525	0.04771
14.0907	0.04740
14.129	0.04701
14.1676	0.04665
14.2065	0.04639
14.2455	0.04615
14.2847	0.04593
14.3242	0.04571
14.3639	0.04558
14.4038	0.04557
14.4439	0.04534
14.4843	0.04507
14.5248	0.04474
14.5656	0.04441
14.6067	0.04416
14.6479	0.04381
14.6894	0.04349
14.7312	0.04307
14.7731	0.04272
14.8153	0.04229
14.8578	0.04187
14.9005	0.04152
14.9434	0.04130
14.9866	0.04108
15.03	0.04076
15.0737	0.04039
15.1177	0.03998
15.1619	0.03966
15.2063	0.03945
15.2511	0.03913
15.2961	0.03871
15.3413	0.03837
15.3868	0.03812
15.4326	0.03788
15.4787	0.03760
15.525	0.03759
15.5717	0.03756
15.6186	0.03758
15.6658	0.03758
15.7132	0.03749
15.761	0.03749
15.809	0.03751
15.8574	0.03749
15.906	0.03750
15.955	0.03747
16.0042	0.03728
16.0538	0.03706
16.1036	0.03690
16.1538	0.03691
16.2043	0.03696
16.2551	0.03689
16.3062	0.03697
16.3576	0.03736
16.4094	0.03763
16.4615	0.03808
16.5139	0.03863
16.5667	0.03916
16.6198	0.03974
16.6732	0.04049
16.727	0.04130
16.7811	0.04205
16.8356	0.04296
16.8905	0.04388
16.9457	0.04487
17.0012	0.04597
17.0572	0.04687
17.1134	0.04775
17.1701	0.04874
17.2272	0.04981
17.2846	0.05078
17.3424	0.05177
17.4006	0.05272
17.4592	0.05370
17.5182	0.05463
17.5775	0.05551
17.6373	0.05654
17.6975	0.05764
17.7581	0.05882
17.8192	0.05993
17.8806	0.06105
17.9425	0.06248
18.0048	0.06386
18.0675	0.06533
18.1307	0.06666
18.1943	0.06815
18.2584	0.07003
18.3229	0.07174
18.3879	0.07320
18.4533	0.07443
18.5192	0.07526
18.5856	0.07563
18.6524	0.07538
18.7198	0.07471
18.7876	0.07390
18.8559	0.07335
18.9247	0.07239
18.9941	0.07142
19.0639	0.07073
19.1342	0.07001
19.2051	0.06929
19.2765	0.06883
19.3484	0.06808
19.4209	0.06742
19.4939	0.06734
19.5675	0.06764
19.6416	0.06824
19.7163	0.06962
19.7915	0.07210
19.8673	0.07577
19.9438	0.08052
20.0208	0.08722
20.0984	0.09604
20.1766	0.10667
20.2554	0.11881
20.3348	0.13253
20.4149	0.14720
20.4956	0.16184
20.5769	0.17587
20.6589	0.18861
20.7415	0.20021
20.8248	0.21029
20.9088	0.21788
20.9934	0.22404
21.0788	0.22906
21.1648	0.23264
21.2516	0.23470
21.339	0.23486
21.4272	0.23386
21.5161	0.23165
21.6058	0.22899
21.6962	0.22694
21.7873	0.22526
21.8793	0.22313
21.972	0.22110
22.0655	0.21924
22.1598	0.21722
22.2549	0.21462
22.3508	0.21149
22.4475	0.20928
22.5451	0.20713
22.6436	0.20429
22.7429	0.20204
22.8431	0.20037
22.9442	0.19836
23.0462	0.19670
23.149	0.19521
23.2528	0.19335
23.3576	0.19183
23.4633	0.19040
23.5699	0.18849
23.6776	0.18643
23.7862	0.18494
23.8958	0.18334
24.0064	0.18157
24.1181	0.17997
24.2308	0.17848
24.3445	0.17742
24.4594	0.17567
24.5753	0.17294
24.6923	0.17091
24.8104	0.16922
24.9297	0.16794
25.0502	0.16776
